#PSI Spectral Library Format
MS:1009003|Name = TYRAMINE
MS:1009001|Spectrum index = 1
MS:1000894|RetentionTime = 2.04000
MS:1000864|Formula = C8H11NO
MS:1002894|InChiKey = DZGWFCGJZKJUFP-UHFFFAOYSA-N
MS:1009100|CASNo = 51-67-2
MS:1000868|Smiles = NCCC1=CC=C(O)C=C1
MS:1009101|PubChemID = 5610
MS:1000744|Selected Ion m/z = 138.09134
MS:1000045|Collision_energy = 20.0
Adduct = M+H
MS:1000073|Electrospray ionization
MS:1000130|Positive scan
MS:1009006|number of peaks = 183
50.1005 71.18
50.2260 52.07
50.5600 65.34
50.6139 52.22
51.1590 47.19
51.1783 48.63
51.5686 71.94
51.6659 49.70
52.2456 50.63
53.0084 57.22
53.0388 83.92
53.0596 127.73
53.4249 58.02
53.5666 138.81
53.9772 53.68
54.7074 147.94
54.8347 136.34
55.3034 122.24
55.3049 53.71
55.4075 64.30
55.5078 64.59
55.7237 86.04
55.7960 88.19
56.9424 95.17
57.0329 237.16
57.2080 57.49
57.3744 151.97
57.3968 136.92
58.7859 100.12
59.0951 74.06
59.4645 237.18
59.8179 55.11
60.1075 72.21
60.2694 55.47
61.0512 65.53
61.4052 52.91
61.6508 55.46
62.9176 68.15
64.6492 267.91
65.0387 254.76
65.1879 77.47
66.4939 111.65
66.9647 97.59
67.8355 69.45
68.7875 87.40
69.0699 80.99
69.2329 265.04
69.6167 144.82
69.7209 57.76
69.7425 146.63
69.7469 60.19
69.8017 160.34
69.9721 61.05
70.2265 56.26
70.2631 73.65
70.5425 100.79
72.0163 242.75
72.0307 70.88
72.4100 95.10
72.5282 143.80
72.8079 65.13
72.9372 140.34
73.4410 300.32
74.0959 71.00
74.4012 64.62
75.1545 60.85
75.3964 290.07
75.7481 85.73
75.9456 65.90
76.9653 57.04
77.0386 1086.24
77.3701 55.41
78.3947 81.05
79.0182 83.41
79.2105 86.94
80.7617 71.87
81.0699 62.73
81.6110 90.43
83.0491 151.96
83.2203 60.10
83.8474 69.82
84.5952 64.86
86.0126 55.38
86.3676 63.67
87.3883 276.68
89.0609 66.07
89.0722 256.42
90.1116 79.42
90.1984 68.43
90.4823 297.33
90.6459 83.11
90.9478 222.67
91.0543 11904.58
91.9161 64.26
92.0576 1017.23
92.2332 63.23
93.0700 34616.78
93.5105 97.78
93.9379 95.49
94.0733 3948.79
94.0974 146.12
95.0492 10115.80
95.0856 234.38
96.0525 367.56
96.1271 73.17
96.7521 192.26
97.0648 115.48
98.1745 60.07
98.8162 79.56
98.9355 148.47
98.9618 67.85
100.2811 159.43
101.8658 76.42
102.1607 70.07
103.0543 17571.71
104.0357 84.44
104.0576 1986.19
104.2150 76.89
105.0449 3731.99
105.6347 82.38
105.6900 60.68
105.8406 63.77
106.0448 78.40
106.0482 134.32
108.3342 77.09
110.8658 61.23
111.0233 1103.87
112.6886 65.94
112.9022 78.29
113.9637 2444.45
116.9720 1761.87
117.1739 59.78
118.0291 80.97
119.5514 71.85
120.0569 93.60
120.1664 66.09
120.5933 127.06
120.9240 61.13
121.0286 6470.86
121.0321 380.36
121.0648 767247.05
121.0792 139.00
121.0997 1399.25
122.0315 150.30
122.0472 78.61
122.0682 159067.53
122.1036 176.09
122.3942 57.46
123.8580 55.22
124.0151 303.83
125.7753 79.92
131.9743 990.28
133.1492 71.25
134.3675 173.22
135.7296 56.67
135.7747 56.93
136.1425 89.67
138.0555 79.53
138.0914 3122.79
139.0391 818.91
139.0504 110.09
139.0753 1399.26
139.0947 488.06
139.1118 2243.52
140.4889 71.89
141.2527 78.56
143.4267 61.40
144.4516 67.96
144.7920 64.02
146.2173 121.49
147.8492 64.46
147.9964 201.37
149.7546 83.06
149.9559 69.50
151.2731 78.87
154.3223 79.30
154.6684 72.72
154.8955 193.22
155.0584 66.98
155.9748 159.79
157.7631 113.83
158.2017 83.97
159.0402 186.87

MS:1009003|Name = TYRAMINE
MS:1009001|Spectrum index = 2
MS:1000894|RetentionTime = 2.04000
MS:1000864|Formula = C8H11NO
MS:1002894|InChiKey = DZGWFCGJZKJUFP-UHFFFAOYSA-N
MS:1009100|CASNo = 51-67-2
MS:1000868|Smiles = NCCC1=CC=C(O)C=C1
MS:1009101|PubChemID = 5610
MS:1000744|Selected Ion m/z = 138.09134
MS:1000045|Collision_energy = 30.0
Adduct = M+H
MS:1000073|Electrospray ionization
MS:1000130|Positive scan
MS:1009006|number of peaks = 190
50.6490 58.70
50.8113 49.60
51.1544 50.67
51.2671 60.33
51.3620 45.03
51.6574 54.80
51.6657 66.46
51.9328 213.79
51.9734 61.50
52.2416 59.04
52.2472 52.31
52.3721 83.30
53.6137 285.75
54.1385 53.72
54.3730 252.45
54.3971 49.26
54.7092 98.35
54.7962 81.96
54.8996 56.66
55.2112 215.56
55.4091 60.38
56.9951 71.44
57.0237 65.61
57.2751 57.48
57.8429 69.67
58.0539 63.36
58.7888 51.64
59.0473 66.89
59.2900 143.24
59.7275 272.55
59.8220 70.88
60.1005 74.53
60.2064 80.53
60.6259 74.31
60.6348 66.73
60.7613 54.97
60.7954 66.32
61.6150 74.31
61.8045 59.43
62.4533 79.13
62.6740 61.96
62.9041 283.35
62.9995 88.41
63.0146 59.90
63.3451 54.04
63.3636 145.30
63.4203 51.83
63.4575 57.54
63.5710 66.88
64.0733 154.69
64.7967 122.76
64.8821 71.86
65.0387 217.69
65.0860 63.66
65.1893 50.81
66.2792 240.11
66.8773 63.82
67.0543 53.79
68.9793 54.59
69.0701 71.11
69.4004 68.01
69.7850 58.27
70.0757 239.79
70.3647 61.83
70.4632 57.70
70.9202 66.56
71.1924 144.70
71.2716 263.08
71.3136 289.24
71.4251 130.80
71.6415 72.55
72.0122 59.03
72.9372 240.40
73.0135 142.58
73.3809 259.36
74.3967 149.03
75.0828 158.91
77.0386 937.21
77.1195 81.21
77.2446 59.75
77.7426 65.53
78.5094 73.87
79.0935 63.10
79.2798 270.32
80.8432 60.86
81.7027 72.72
83.0493 73.70
83.2009 72.06
83.2800 76.43
83.7463 61.77
83.8599 62.34
86.4533 166.84
86.7599 324.95
87.5940 76.69
88.1755 391.83
88.4405 66.29
88.6631 74.81
88.7326 58.70
89.9806 80.00
90.0125 82.53
90.1293 60.02
90.7695 66.08
90.7915 80.36
90.9482 72.04
91.0543 15406.37
91.4769 68.51
91.5762 65.61
92.0576 1223.28
92.3004 69.46
92.5124 66.39
92.6492 74.31
92.8682 76.02
93.0700 36357.28
94.0412 179.25
94.0733 5406.75
94.9855 60.19
94.9885 69.40
95.0492 11240.97
95.0856 223.12
95.3913 154.49
95.6396 78.49
96.0525 294.82
96.3856 67.88
96.8641 60.86
97.0078 112.94
97.0650 201.40
99.0285 278.79
99.3414 70.29
100.0804 157.45
100.3136 62.40
100.8207 68.01
102.4856 59.62
103.0543 18852.58
103.5518 65.69
104.0376 79.57
104.0576 1872.03
105.0448 4243.38
105.0599 77.10
106.8890 61.76
107.9141 260.15
108.5048 307.25
108.8163 86.72
109.2922 65.23
109.8696 71.40
110.5834 305.65
111.0234 1268.47
111.0804 77.64
113.9639 2789.46
115.0144 57.97
115.9642 271.18
116.0878 63.10
116.5889 147.33
116.7031 62.30
116.9721 1810.80
117.6071 64.00
120.0263 77.32
120.3949 65.81
121.0076 66.17
121.0286 5558.28
121.0398 142.22
121.0649 781377.80
121.1008 1600.49
122.0315 79.34
122.0682 160068.97
122.1033 173.99
124.2394 61.27
129.3905 64.21
131.5029 292.59
131.9743 1176.22
133.4541 81.06
133.6687 324.66
135.5318 72.82
138.0915 3784.17
138.7638 284.58
139.0182 77.30
139.0391 990.45
139.0755 1407.92
139.0947 242.46
139.1119 1802.54
141.0366 58.15
141.9520 81.27
145.4767 86.55
148.7696 66.39
153.5793 70.25
155.6962 91.85
155.9747 237.98
156.0544 157.93
156.6329 66.26
157.8375 297.37
159.1338 75.12

MS:1009003|Name = TYRAMINE
MS:1009001|Spectrum index = 3
MS:1000894|RetentionTime = 2.04000
MS:1000864|Formula = C8H11NO
MS:1002894|InChiKey = DZGWFCGJZKJUFP-UHFFFAOYSA-N
MS:1009100|CASNo = 51-67-2
MS:1000868|Smiles = NCCC1=CC=C(O)C=C1
MS:1009101|PubChemID = 5610
MS:1000744|Selected Ion m/z = 138.09134
MS:1000045|Collision_energy = 40.0
Adduct = M+H
MS:1000073|Electrospray ionization
MS:1000130|Positive scan
MS:1009006|number of peaks = 166
51.2035 262.99
53.0389 92.35
53.1876 54.82
53.4331 54.60
53.7020 139.43
53.7209 56.13
54.5865 59.87
55.1020 255.26
55.1554 57.10
55.7824 64.32
56.0501 71.92
56.1741 84.74
56.5585 61.64
56.9166 60.40
56.9458 58.15
57.3505 82.84
58.5637 77.31
58.9581 64.61
59.4429 59.81
59.8008 55.11
59.8882 106.52
60.0413 75.30
60.0865 82.45
60.3434 55.90
60.7994 71.03
60.8532 86.65
61.4032 60.97
61.5423 75.39
61.7426 64.54
61.8683 82.86
62.1550 77.19
62.5223 72.53
62.5921 80.17
62.6640 58.72
63.0231 77.04
63.1286 76.88
65.0387 294.98
65.0849 58.48
65.5712 286.42
65.6430 84.35
65.9190 266.20
66.1188 73.11
66.6682 76.02
66.9479 57.91
67.0103 259.44
67.4019 83.78
67.9202 267.49
68.0822 83.77
68.1802 86.72
68.5407 81.50
69.3503 74.37
70.5067 278.68
71.4609 63.66
71.6840 264.78
72.1010 351.05
72.9370 114.75
73.0499 61.91
74.2635 71.26
74.3185 61.74
74.8387 288.96
74.9336 73.68
75.0878 62.54
76.0000 299.91
76.4169 89.17
77.0385 1126.03
79.0542 90.27
79.1523 80.14
80.2737 86.21
80.4514 102.85
81.0336 108.10
81.1642 61.92
81.5331 62.24
81.6225 73.59
82.3646 99.06
82.9924 61.39
83.0372 80.29
83.0492 426.49
84.6378 66.99
85.6893 65.23
85.9079 78.48
87.1552 78.00
87.1936 88.67
88.1413 84.12
88.7494 64.25
90.6053 264.68
90.6086 60.79
90.9478 105.36
91.0542 21075.18
91.2575 83.24
91.4214 63.47
92.0576 2515.38
92.1141 71.75
93.0700 57594.49
93.1972 70.91
93.2599 335.28
93.8913 66.88
94.0412 98.50
94.0733 7986.58
95.0492 14226.80
95.0856 104.36
95.9910 63.67
96.0525 869.08
97.0078 100.99
97.0648 350.26
98.0201 87.68
99.3724 303.99
100.6915 93.97
100.8572 87.29
101.4551 65.45
101.9942 104.80
102.0469 97.85
102.1619 70.36
102.6146 284.14
103.0542 31281.70
103.5453 107.01
104.0576 3245.65
105.0448 5155.51
105.5554 338.62
106.0484 162.31
107.2738 80.90
110.6420 66.23
111.0232 1607.23
111.0440 88.31
112.8356 97.70
113.0018 90.71
113.0816 333.94
113.3467 308.39
113.9638 1831.41
115.9641 184.23
116.3046 69.57
116.9719 1273.35
119.9575 81.44
120.8641 69.98
121.0286 5020.80
121.0398 97.99
121.0577 1947.47
121.0648 838172.02
121.1010 1951.47
122.0332 143.59
122.0681 171035.74
122.1031 110.76
123.1152 353.87
124.0148 448.85
124.7600 90.88
131.0520 106.11
131.7956 91.44
131.9744 742.92
132.1770 93.05
134.7421 92.14
134.8409 73.71
135.6561 80.78
138.0549 79.63
138.0914 1959.30
139.0184 79.03
139.0389 432.34
139.0754 949.39
139.0948 267.76
139.1118 1509.65
139.7530 72.72
141.5348 104.29
142.4534 71.97
144.8725 74.12
146.5129 94.70
146.7715 319.08
147.8781 80.62
155.4837 92.80

